# Wilkinson Microwave Anisotropy Probe (WMAP) 7-year data release.
# WMAP 7-Year Unbinned BB Power Spectrum by Frequency, version 4 (June 2011)
#
# References: - WMAP Explanatory Supplement: http://lambda.gsfc.nasa.gov/
#             - Larson, et al. (2010)
#
# Column 1 = multipole moment l (32 <= l <= 800).
# Column 2 = Q-band BB power spectrum, l(l+1)/2pi * C_l, units = uK^2.
# Column 3 = Noise-only Error in the Q-band spectrum, units = uK^2.
# Column 4 = V-band BB power spectrum, l(l+1)/2pi * C_l, units = uK^2.
# Column 5 = Noise-only Error in the V-band spectrum, units = uK^2.
# Column 6 = W-band BB power spectrum, l(l+1)/2pi * C_l, units = uK^2.
# Column 7 = Noise-only Error in the W-band spectrum, units = uK^2.
#
  32            1.5420000         1.4019000           -1.4916000         1.5434000           -1.7958000         2.3951000
  33            1.9768000         1.4601000           -0.0722180         1.6082000            1.3961000         2.4857000
  34            2.8562000         1.5192000           -3.8783000         1.6740000            1.4499000         2.5776000
  35            0.8848200         1.5793000            0.6034000         1.7409000            1.8315000         2.6707000
  36           -0.2453000         1.6403000           -0.4314700         1.8088000            0.8445000         2.7650000
  37            0.6118300         1.7024000           -0.1479200         1.8778000            1.3578000         2.8606000
  38           -0.9452000         1.7654000            2.1953000         1.9478000           -2.6476000         2.9574000
  39            2.1780000         1.8294000           -2.7191000         2.0188000            0.9933000         3.0554000
  40           -1.1700000         1.8943000           -0.9136000         2.0909000            0.0626100         3.1547000
  41            8.0022000         1.9603000           -0.2518400         2.1640000            1.4475000         3.2552000
  42           -2.8468000         2.0272000           -2.6735000         2.2381000            1.5875000         3.3570000
  43            0.4988400         2.0952000            2.1110000         2.3133000            1.9304000         3.4601000
  44            1.0935000         2.1642000            1.9128000         2.3895000            5.1276000         3.5644000
  45           -1.3559000         2.2341000           -0.7923600         2.4668000           -1.5139000         3.6700000
  46           -1.4951000         2.3051000           -2.0012000         2.5451000           -4.8722000         3.7768000
  47            2.2477000         2.3771000           -2.5561000         2.6245000            0.9414600         3.8849000
  48            3.0607000         2.4501000            1.9149000         2.7049000            4.3162000         3.9943000
  49            2.4273000         2.5242000           -5.1954000         2.7864000            2.5212000         4.1050000
  50           -2.1300000         2.5993000           -1.9117000         2.8689000            2.3850000         4.2170000
  51            4.1315000         2.6754000            0.8620600         2.9525000            4.6976000         4.3303000
  52           -0.7790000         2.7526000           -0.9246400         3.0371000           -4.9658000         4.4449000
  53           -0.7840400         2.8309000            2.4588000         3.1229000           -9.8260000         4.5608000
  54            0.8933100         2.9102000            1.8790000         3.2097000           -0.9394800         4.6780000
  55           -0.8376700         2.9906000           -1.3061000         3.2976000           -0.4647300         4.7965000
  56           -2.5331000         3.0721000           -2.5883000         3.3865000           -1.1920000         4.9164000
  57           -0.2985200         3.1547000            2.6302000         3.4766000           -4.6542000         5.0376000
  58           -1.0145000         3.2383000            0.7181700         3.5677000            5.5646000         5.1602000
  59           -1.4029000         3.3231000            0.9106500         3.6600000           -3.6229000         5.2841000
  60            0.1783800         3.4090000            3.1177000         3.7533000           -7.4753000         5.4094000
  61           -5.1671000         3.4961000           -4.1152000         3.8478000            4.1423000         5.5360000
  62            2.0504000         3.5843000            1.3316000         3.9433000           10.5860000         5.6640000
  63            1.4356000         3.6736000          -12.2850000         4.0400000           -2.3937000         5.7935000
  64           -0.0877350         3.7641000           -2.3671000         4.1378000           -0.1143700         5.9243000
  65            8.2601000         3.8558000           10.5710000         4.2368000           19.9450000         6.0565000
  66           -3.0031000         3.9487000           -6.1922000         4.3368000           -4.3901000         6.1901000
  67           -3.6723000         4.0428000           -6.9208000         4.4381000            4.1332000         6.3251000
  68            0.7306800         4.1380000            6.4685000         4.5404000            0.1812800         6.4616000
  69            4.1254000         4.2346000           -1.5233000         4.6439000            5.8604000         6.5995000
  70           -0.8003600         4.3323000           -4.8843000         4.7486000           -6.6412000         6.7389000
  71           -7.8283000         4.4313000           -3.7909000         4.8544000            0.7045900         6.8797000
  72           -2.2038000         4.5316000           -1.4089000         4.9614000           10.7130000         7.0220000
  73          -12.7790000         4.6331000            0.0517710         5.0696000            5.8072000         7.1657000
  74           -6.8839000         4.7360000            2.1021000         5.1790000           -6.9244000         7.3110000
  75            2.9534000         4.8401000           10.6650000         5.2895000           -4.4127000         7.4577000
  76           -1.3040000         4.9456000            4.2767000         5.4013000           -6.0611000         7.6059000
  77           -0.0848370         5.0524000           -6.3914000         5.5143000           -0.2834200         7.7557000
  78            1.5497000         5.1606000            1.8583000         5.6284000            3.8636000         7.9070000
  79           -4.9309000         5.2701000            0.2457000         5.7438000           -5.8618000         8.0598000
  80            3.0295000         5.3810000           -7.6501000         5.8605000            3.8909000         8.2142000
  81            9.6483000         5.4934000            0.4787900         5.9783000           -2.8896000         8.3701000
  82           -6.7567000         5.6071000            0.1045300         6.0974000          -12.7750000         8.5276000
  83           -0.7822300         5.7223000           -4.7055000         6.2178000           -8.3661000         8.6866000
  84           -0.7634200         5.8390000            2.3229000         6.3394000           -4.8183000         8.8473000
  85            3.2883000         5.9571000            5.0184000         6.4622000            6.4295000         9.0095000
  86            5.4007000         6.0768000           -6.0068000         6.5864000            0.6774500         9.1734000
  87            1.0330000         6.1979000            5.5191000         6.7118000          -16.3050000         9.3389000
  88            2.7160000         6.3206000           -4.1370000         6.8385000           -5.5805000         9.5060000
  89            8.4086000         6.4448000            7.2293000         6.9665000           14.7490000         9.6748000
  90           -1.9784000         6.5706000           23.1540000         7.0958000            8.9587000         9.8452000
  91            6.3415000         6.6980000           -3.8671000         7.2264000           -6.5334000        10.0170000
  92            3.0519000         6.8269000            2.2331000         7.3584000            9.2040000        10.1910000
  93           18.3640000         6.9576000           -6.7783000         7.4916000           -9.3087000        10.3670000
  94           -1.5873000         7.0898000            1.3206000         7.6263000          -16.6560000        10.5440000
  95           -5.1572000         7.2237000            3.3269000         7.7622000           -8.9030000        10.7230000
  96           -0.4022600         7.3593000            9.8278000         7.8995000            4.4171000        10.9030000
  97           -6.0914000         7.4966000            3.6273000         8.0382000          -11.2510000        11.0860000
  98            8.6904000         7.6357000           -7.7786000         8.1782000            8.9388000        11.2700000
  99            0.4400000         7.7765000            0.7595300         8.3197000            3.1457000        11.4560000
 100           -0.0616960         7.9190000            4.4691000         8.4625000          -17.8380000        11.6430000
 101           22.1090000         8.0633000           -4.0631000         8.6067000            5.5747000        11.8330000
 102           -5.3357000         8.2095000            3.1428000         8.7524000            0.8127500        12.0240000
 103           13.4120000         8.3575000          -15.5350000         8.8994000            2.7437000        12.2170000
 104           -3.5885000         8.5073000            1.5018000         9.0479000           -2.7597000        12.4120000
 105            1.5054000         8.6590000           20.7620000         9.1978000           -3.2158000        12.6090000
 106            0.8205800         8.8126000          -11.5450000         9.3492000          -21.9120000        12.8070000
 107            0.8523200         8.9680000           -1.8821000         9.5020000          -25.8070000        13.0080000
 108           -4.5496000         9.1255000           -1.8609000         9.6563000           16.6580000        13.2100000
 109           -3.3182000         9.2849000           -9.6256000         9.8121000            1.4101000        13.4140000
 110           -2.0528000         9.4462000            0.0940550         9.9693000           -4.6984000        13.6210000
 111           -9.0914000         9.6096000            1.9574000        10.1280000           -1.8154000        13.8290000
 112          -12.0380000         9.7750000          -24.3510000        10.2880000            1.2329000        14.0390000
 113            1.2249000         9.9424000            2.3501000        10.4500000            9.0662000        14.2510000
 114           -1.9876000        10.1120000          -13.6600000        10.6130000           -1.6364000        14.4650000
 115           -7.2235000        10.2830000           15.8160000        10.7780000           -7.8892000        14.6810000
 116           -5.8502000        10.4570000           -2.0881000        10.9450000           16.3730000        14.8990000
 117           14.6670000        10.6330000          -11.6090000        11.1130000          -22.7240000        15.1180000
 118           24.2550000        10.8110000            4.3555000        11.2820000            3.4658000        15.3400000
 119           -5.4770000        10.9910000          -10.5920000        11.4530000           36.2450000        15.5640000
 120            5.0775000        11.1730000           12.2910000        11.6260000           18.7870000        15.7900000
 121           21.5270000        11.3580000            3.8621000        11.8000000            1.6641000        16.0180000
 122            0.3342200        11.5450000            8.1092000        11.9760000            5.8130000        16.2490000
 123           -7.3759000        11.7340000            4.3545000        12.1540000           10.6760000        16.4810000
 124           10.3420000        11.9250000          -12.0670000        12.3330000           29.9890000        16.7150000
 125           -0.4703500        12.1190000            0.2710600        12.5140000          -26.9650000        16.9520000
 126           25.9140000        12.3150000          -11.7250000        12.6970000          -14.1640000        17.1900000
 127            9.5747000        12.5130000           -4.7948000        12.8810000           -4.5596000        17.4310000
 128           -0.3394400        12.7140000           -4.1837000        13.0670000          -11.0270000        17.6740000
 129           23.0560000        12.9170000            5.4003000        13.2550000            7.8986000        17.9190000
 130           -7.5563000        13.1220000            9.3048000        13.4440000           32.3040000        18.1660000
 131          -24.4760000        13.3300000            3.5045000        13.6350000          -22.5890000        18.4160000
 132            6.6449000        13.5410000           14.4850000        13.8280000          -35.2620000        18.6670000
 133           18.0180000        13.7540000           20.3450000        14.0220000           20.1490000        18.9210000
 134            5.4178000        13.9700000          -26.8140000        14.2190000            5.4480000        19.1780000
 135           19.1220000        14.1880000          -19.3160000        14.4170000          -10.0200000        19.4360000
 136          -22.0760000        14.4090000           25.3810000        14.6170000           17.7800000        19.6970000
 137           -9.3645000        14.6320000            5.8903000        14.8180000          -19.8380000        19.9600000
 138            4.2287000        14.8580000           -5.8645000        15.0220000           -0.8706700        20.2250000
 139           -1.5988000        15.0870000          -12.1300000        15.2270000          -12.3930000        20.4930000
 140          -19.4480000        15.3190000           -8.4471000        15.4350000           -9.4873000        20.7630000
 141          -15.5600000        15.5530000           13.4690000        15.6440000           16.3070000        21.0350000
 142           -5.7384000        15.7900000           16.9980000        15.8550000           25.1140000        21.3090000
 143          -15.4070000        16.0300000           -1.5474000        16.0680000          -58.6390000        21.5860000
 144           -3.0176000        16.2730000           23.0600000        16.2820000          -12.6750000        21.8660000
 145          -13.9630000        16.5190000            5.0852000        16.4990000            5.8222000        22.1480000
 146           -0.9090100        16.7670000            6.9083000        16.7180000           47.6700000        22.4320000
 147           13.4900000        17.0190000           -9.6080000        16.9380000           -2.0776000        22.7190000
 148           -8.7086000        17.2730000            9.0082000        17.1610000           41.0770000        23.0080000
 149          -18.8780000        17.5310000            4.5894000        17.3860000           -2.6969000        23.2990000
 150           -9.3633000        17.7920000            3.5615000        17.6120000          -26.9750000        23.5930000
 151            9.2029000        18.0560000           -3.3060000        17.8410000           -2.4218000        23.8900000
 152            4.5347000        18.3230000          -35.3640000        18.0710000           -0.8410400        24.1890000
 153           -7.1327000        18.5930000           -3.4779000        18.3040000           12.2060000        24.4900000
 154          -34.7190000        18.8670000           23.9060000        18.5390000          -13.0040000        24.7950000
 155           19.0280000        19.1440000          -13.0330000        18.7760000            9.1972000        25.1010000
 156           58.2030000        19.4240000           -6.9156000        19.0140000          -18.7840000        25.4100000
 157          -27.7120000        19.7080000           10.7610000        19.2550000           13.2290000        25.7220000
 158          -19.6200000        19.9950000           43.9980000        19.4990000           12.5940000        26.0360000
 159            0.5099100        20.2850000          -29.9990000        19.7440000            7.8021000        26.3530000
 160           -5.4688000        20.5800000          -19.7120000        19.9910000          -11.5630000        26.6730000
 161          -20.9770000        20.8770000           -3.4254000        20.2410000          -49.5590000        26.9950000
 162          -24.5300000        21.1790000            5.2186000        20.4930000          -16.4130000        27.3200000
 163           18.3540000        21.4840000          -45.0640000        20.7470000           48.7700000        27.6480000
 164           19.1990000        21.7930000          -19.2780000        21.0030000           36.6290000        27.9780000
 165           -7.5033000        22.1050000           -5.0337000        21.2620000          -22.2000000        28.3110000
 166           -8.1216000        22.4220000          -10.1000000        21.5220000           13.0620000        28.6460000
 167           14.4920000        22.7430000           23.8360000        21.7860000          -55.4650000        28.9850000
 168           -4.4819000        23.0670000          -36.4030000        22.0510000           50.0290000        29.3260000
 169            0.9897900        23.3950000          -15.0720000        22.3190000          -21.4820000        29.6690000
 170          -36.7070000        23.7280000           41.4700000        22.5890000          -19.8070000        30.0160000
 171           41.8730000        24.0650000          -17.9800000        22.8610000           93.9330000        30.3650000
 172            7.5771000        24.4060000           41.3640000        23.1360000          -26.1850000        30.7180000
 173            1.5915000        24.7510000            4.0833000        23.4130000           -9.4097000        31.0720000
 174           22.6900000        25.1010000          -18.1150000        23.6930000           27.7700000        31.4300000
 175            6.9919000        25.4550000           -2.6949000        23.9750000            9.2056000        31.7910000
 176           37.2880000        25.8140000           59.0100000        24.2600000          -30.7820000        32.1540000
 177            0.9286700        26.1770000           32.2210000        24.5470000          -13.1210000        32.5210000
 178           13.9350000        26.5450000           -7.0485000        24.8360000           10.7650000        32.8900000
 179          -58.8740000        26.9170000          -29.0540000        25.1280000           38.2860000        33.2620000
 180          -14.8840000        27.2940000           13.9590000        25.4230000           22.3340000        33.6370000
 181           -9.7406000        27.6760000           -2.2217000        25.7200000           22.5330000        34.0160000
 182           31.2300000        28.0630000           14.8780000        26.0200000          -27.6920000        34.3970000
 183          -27.3010000        28.4550000          -13.6600000        26.3220000          -62.7940000        34.7810000
 184           42.4650000        28.8520000          -27.0860000        26.6270000           -1.3690000        35.1680000
 185          -18.9980000        29.2540000           -6.0996000        26.9350000          -13.5360000        35.5580000
 186           11.0980000        29.6610000           -1.7217000        27.2450000          -37.6620000        35.9510000
 187           -3.8873000        30.0740000           38.8140000        27.5580000           55.7810000        36.3470000
 188           24.3250000        30.4920000           33.6010000        27.8740000          -11.5000000        36.7460000
 189           78.5540000        30.9150000           -0.3667500        28.1920000          -24.9020000        37.1480000
 190           11.3790000        31.3440000           -5.6538000        28.5130000          -35.9450000        37.5530000
 191           12.3470000        31.7780000           -5.7625000        28.8370000          -50.9790000        37.9620000
 192           18.5700000        32.2180000           36.8300000        29.1640000          -33.9600000        38.3730000
 193          -54.6160000        32.6630000          -16.4020000        29.4930000          -20.3250000        38.7880000
 194           16.5970000        33.1150000           17.2330000        29.8250000            8.1367000        39.2060000
 195           -3.9706000        33.5720000           19.4460000        30.1600000          -73.4610000        39.6270000
 196           28.4040000        34.0350000          -43.3020000        30.4980000            5.1689000        40.0510000
 197            2.0802000        34.5050000          -29.1750000        30.8390000           -7.0124000        40.4790000
 198           39.2370000        34.9800000            4.9856000        31.1830000          -98.3070000        40.9100000
 199           83.1930000        35.4620000          -80.2790000        31.5300000          -12.5990000        41.3440000
 200           37.9910000        35.9500000            5.5749000        31.8800000          -37.0270000        41.7810000
 201           19.6800000        36.4440000           70.9590000        32.2320000          -49.8420000        42.2220000
 202           -4.1817000        36.9450000          -26.0600000        32.5880000            6.9387000        42.6660000
 203          -60.4070000        37.4520000           -9.1103000        32.9470000           36.8360000        43.1130000
 204           -4.4350000        37.9660000           -7.7600000        33.3090000           30.9000000        43.5640000
 205           11.5350000        38.4860000          -12.0260000        33.6740000          -25.9750000        44.0180000
 206           -6.0765000        39.0130000           14.0390000        34.0420000            1.9680000        44.4760000
 207            7.6785000        39.5480000          -20.7730000        34.4130000           -5.0758000        44.9370000
 208            9.6030000        40.0890000           33.7940000        34.7870000            2.5038000        45.4010000
 209          -42.0540000        40.6370000          -68.2630000        35.1640000           12.8650000        45.8690000
 210          -15.2710000        41.1930000          -12.4160000        35.5450000          -39.8470000        46.3410000
 211            5.9998000        41.7550000          -25.0700000        35.9290000           31.8390000        46.8150000
 212          -20.2560000        42.3250000           -7.6189000        36.3160000           38.1530000        47.2940000
 213           42.0330000        42.9030000           55.9800000        36.7060000          -36.1930000        47.7760000
 214           99.2720000        43.4880000           27.2670000        37.1000000           72.8110000        48.2620000
 215           34.3630000        44.0800000           47.0440000        37.4960000           45.1000000        48.7510000
 216           98.2000000        44.6800000           95.6970000        37.8970000          126.2500000        49.2440000
 217           16.0400000        45.2880000           -7.4191000        38.3000000           14.3400000        49.7410000
 218           -0.0747260        45.9040000           -4.9654000        38.7070000            1.0007000        50.2410000
 219           27.0820000        46.5280000          -28.7550000        39.1180000          -81.1440000        50.7460000
 220           10.0430000        47.1610000          -34.6220000        39.5310000          -58.4360000        51.2530000
 221          -29.2500000        47.8010000            5.9558000        39.9490000            1.0277000        51.7650000
 222            4.2407000        48.4500000          -46.5000000        40.3690000           78.0830000        52.2800000
 223           28.7550000        49.1070000         -112.2400000        40.7940000           64.6020000        52.8000000
 224           47.4740000        49.7720000          -85.5010000        41.2220000          -11.2720000        53.3230000
 225          -33.7040000        50.4470000           46.0740000        41.6530000           11.1260000        53.8500000
 226          -40.2740000        51.1300000          -69.0980000        42.0880000           -5.9965000        54.3810000
 227           33.1840000        51.8220000          -22.5770000        42.5270000         -118.9000000        54.9160000
 228           77.4480000        52.5230000          -12.1890000        42.9690000          -30.8880000        55.4540000
 229          -45.5840000        53.2330000          -58.8510000        43.4150000           41.7880000        55.9970000
 230           52.0070000        53.9520000           39.1230000        43.8640000          -21.6090000        56.5440000
 231            4.8211000        54.6810000           36.5820000        44.3180000           -0.0200600        57.0950000
 232          -20.9540000        55.4190000           19.9020000        44.7750000          -65.4180000        57.6500000
 233          -19.3780000        56.1660000           -4.9587000        45.2360000           62.8860000        58.2090000
 234            7.2058000        56.9240000           28.0920000        45.7010000          -89.7930000        58.7720000
 235            5.1057000        57.6910000          -13.9850000        46.1690000          -71.2690000        59.3390000
 236           -9.7162000        58.4680000          -20.0740000        46.6420000           22.2280000        59.9100000
 237            8.6368000        59.2560000           43.3000000        47.1180000          -10.7970000        60.4860000
 238          -72.9000000        60.0530000           73.4500000        47.5990000           61.8120000        61.0660000
 239           98.3720000        60.8610000          -72.2230000        48.0830000          -77.5250000        61.6500000
 240          114.3700000        61.6800000           11.0720000        48.5720000          -48.2710000        62.2390000
 241          -77.7660000        62.5090000          -57.8610000        49.0640000          149.0500000        62.8310000
 242         -125.7100000        63.3500000           -1.4630000        49.5610000          -54.0370000        63.4280000
 243          -16.0080000        64.2010000          -84.2720000        50.0610000           53.2120000        64.0300000
 244          -11.5420000        65.0630000          -69.7000000        50.5660000          -42.4830000        64.6360000
 245           -4.8330000        65.9370000          -73.7450000        51.0750000          -27.1110000        65.2460000
 246           14.2850000        66.8220000          -28.4860000        51.5890000           18.4320000        65.8610000
 247           69.5770000        67.7180000           58.8890000        52.1060000          -11.3780000        66.4800000
 248          -12.2050000        68.6270000           47.6020000        52.6280000           97.4610000        67.1040000
 249            7.6763000        69.5470000          -16.8500000        53.1540000          210.6900000        67.7330000
 250          -55.2820000        70.4800000          -14.5040000        53.6850000           -2.9372000        68.3660000
 251          -76.7240000        71.4250000          -37.0990000        54.2200000          -21.5390000        69.0040000
 252         -102.1400000        72.3820000           -0.1418800        54.7600000          -14.9920000        69.6460000
 253           61.1450000        73.3520000           -7.8800000        55.3040000           51.3380000        70.2930000
 254           38.5380000        74.3350000           94.7710000        55.8520000         -103.4200000        70.9450000
 255          -80.2330000        75.3310000           28.6580000        56.4050000           12.3660000        71.6010000
 256           84.6540000        76.3400000          -48.2890000        56.9630000           85.8520000        72.2620000
 257           -4.1113000        77.3630000           54.6780000        57.5250000          -91.1230000        72.9280000
 258          -85.8960000        78.3990000          -78.2110000        58.0930000          -89.1130000        73.5990000
 259           53.2050000        79.4500000          -83.4560000        58.6650000          -64.7870000        74.2750000
 260           44.5490000        80.5140000          -34.8520000        59.2410000          -27.9660000        74.9560000
 261           16.4140000        81.5920000           18.3800000        59.8230000           35.6070000        75.6410000
 262           98.7140000        82.6850000         -104.6800000        60.4090000           35.1830000        76.3320000
 263           31.8760000        83.7930000           46.6600000        61.0010000           74.1520000        77.0270000
 264          -80.7460000        84.9150000           61.4500000        61.5970000           15.1720000        77.7280000
 265           29.8480000        86.0530000           34.5160000        62.1980000          -61.8730000        78.4340000
 266           -7.2159000        87.2060000            0.3345800        62.8050000          -20.2480000        79.1450000
 267         -169.2700000        88.3750000          -91.4690000        63.4160000          -89.9480000        79.8610000
 268           82.4040000        89.5590000          -90.7900000        64.0330000           71.1490000        80.5820000
 269          104.5300000        90.7600000           20.8580000        64.6550000          -45.2170000        81.3080000
 270          -66.7350000        91.9770000          -91.6730000        65.2830000         -116.8700000        82.0400000
 271          -47.1590000        93.2100000         -106.6900000        65.9150000           28.7030000        82.7760000
 272         -134.3800000        94.4610000          -39.1380000        66.5530000         -124.3100000        83.5190000
 273           56.5890000        95.7280000          -13.2560000        67.1960000          106.6700000        84.2660000
 274         -110.4300000        97.0130000           25.6020000        67.8450000           -9.4622000        85.0190000
 275          107.2100000        98.3160000          104.9800000        68.5000000         -108.5300000        85.7770000
 276           68.5530000        99.6360000           89.4900000        69.1590000          -44.1770000        86.5410000
 277          100.3100000       100.9700000           34.5110000        69.8250000           13.8150000        87.3100000
 278          125.6600000       102.3300000          -22.6100000        70.4960000          -17.0260000        88.0850000
 279            5.0986000       103.7100000           69.3180000        71.1730000           96.4280000        88.8650000
 280            7.7113000       105.1000000          152.9200000        71.8560000          -60.9270000        89.6510000
 281          -76.2240000       106.5200000          -81.5340000        72.5440000           -5.8820000        90.4420000
 282          -86.1540000       107.9500000           33.5470000        73.2390000           21.2380000        91.2390000
 283           28.9440000       109.4000000           17.7290000        73.9390000          141.2800000        92.0420000
 284          117.1200000       110.8800000          127.4400000        74.6460000          -87.4450000        92.8500000
 285         -111.7300000       112.3700000          -67.4730000        75.3580000         -155.9300000        93.6640000
 286           11.5020000       113.8900000           50.2400000        76.0770000          128.0300000        94.4840000
 287          -57.1690000       115.4200000           -1.2206000        76.8010000         -105.3900000        95.3100000
 288          -43.4440000       116.9800000          186.3100000        77.5320000          -34.3290000        96.1420000
 289          -32.3760000       118.5600000          109.8500000        78.2690000          -39.0210000        96.9790000
 290          128.1500000       120.1600000           12.0580000        79.0130000          -11.2760000        97.8230000
 291          123.6000000       121.7900000          118.2000000        79.7620000          -46.5960000        98.6720000
 292         -178.9300000       123.4300000          -21.2990000        80.5190000          309.1200000        99.5280000
 293          -23.0840000       125.1000000           -5.9689000        81.2820000         -116.3400000       100.3900000
 294           25.8160000       126.8000000          113.7800000        82.0510000          -54.8140000       101.2600000
 295          -28.1600000       128.5100000          -82.9010000        82.8270000          332.7200000       102.1300000
 296           22.1450000       130.2600000          258.0600000        83.6090000          -77.3770000       103.0100000
 297          100.0700000       132.0200000          -32.2070000        84.3980000          303.1300000       103.9000000
 298         -151.7500000       133.8100000          -45.3140000        85.1950000          -19.8640000       104.7900000
 299          117.9700000       135.6300000           31.6640000        85.9970000          100.8800000       105.6900000
 300          172.5200000       137.4700000          -40.1710000        86.8070000          -55.3030000       106.5900000
 301          -33.4050000       139.3400000         -146.8800000        87.6240000          -21.6670000       107.5000000
 302          262.1300000       141.2300000           31.3130000        88.4470000          101.6200000       108.4200000
 303            9.0442000       143.1500000          -54.0450000        89.2780000          -30.4140000       109.3400000
 304           28.0810000       145.1000000          -29.7520000        90.1160000          107.3300000       110.2700000
 305           -6.2632000       147.0800000            6.7280000        90.9610000          137.0700000       111.2100000
 306          -78.5020000       149.0800000          -40.3020000        91.8130000          -52.0200000       112.1500000
 307          -37.4910000       151.1100000           -7.5313000        92.6730000          150.8900000       113.1000000
 308           58.9380000       153.1700000           56.9510000        93.5400000          -84.3880000       114.0600000
 309           98.9240000       155.2600000         -129.8300000        94.4140000           -0.2306200       115.0200000
 310         -101.1500000       157.3800000          -79.7350000        95.2960000         -192.5500000       115.9900000
 311          162.9000000       159.5300000         -240.3800000        96.1850000         -134.1200000       116.9700000
 312          134.0000000       161.7100000          -70.9500000        97.0820000         -107.5600000       117.9500000
 313          340.1200000       163.9200000         -105.3200000        97.9860000          -78.4010000       118.9400000
 314           86.6920000       166.1600000          -72.7140000        98.8980000           53.1830000       119.9400000
 315          119.7000000       168.4300000           74.8060000        99.8180000           42.8950000       120.9400000
 316         -239.9200000       170.7400000           40.8950000       100.7500000            1.3779000       121.9500000
 317          231.1800000       173.0800000          -71.1470000       101.6800000           41.6110000       122.9700000
 318          -71.2930000       175.4500000          -33.5800000       102.6300000         -113.2900000       123.9900000
 319         -148.5400000       177.8500000           73.4600000       103.5800000          -47.1070000       125.0200000
 320          -28.0670000       180.2900000           33.5130000       104.5400000         -103.8400000       126.0600000
 321           47.1740000       182.7600000         -137.5300000       105.5100000           72.9370000       127.1000000
 322          360.4300000       185.2700000          -10.7020000       106.4800000          -26.4580000       128.1600000
 323          163.9100000       187.8100000           36.9700000       107.4700000          -67.6240000       129.2200000
 324          120.9000000       190.3900000         -253.1600000       108.4600000           -8.0452000       130.2800000
 325          191.2500000       193.0100000          -26.6750000       109.4600000           11.3700000       131.3600000
 326           43.8760000       195.6600000          -23.8940000       110.4700000         -233.9200000       132.4400000
 327         -107.7000000       198.3500000           -0.9727700       111.4900000           57.2130000       133.5200000
 328          123.8300000       201.0800000         -101.0900000       112.5100000           56.3480000       134.6200000
 329         -116.1500000       203.8400000          102.5300000       113.5500000          178.9500000       135.7200000
 330         -182.4000000       206.6500000           17.2270000       114.5900000           38.7290000       136.8300000
 331          328.1900000       209.4900000         -272.4400000       115.6500000         -115.2500000       137.9500000
 332          150.9600000       212.3700000           77.4400000       116.7100000         -135.6500000       139.0700000
 333          143.1800000       215.3000000          146.3900000       117.7800000          183.7800000       140.2000000
 334          -47.4710000       218.2600000         -107.8200000       118.8600000           50.5700000       141.3400000
 335          -71.2230000       221.2700000           46.2980000       119.9500000           13.0030000       142.4900000
 336         -142.0600000       224.3200000           53.0280000       121.0500000          148.7200000       143.6400000
 337          160.9000000       227.4100000          155.0100000       122.1600000           11.2720000       144.8000000
 338          137.2300000       230.5500000           31.3770000       123.2700000         -204.9000000       145.9700000
 339          104.0200000       233.7300000           37.7560000       124.4000000          -91.0370000       147.1500000
 340           39.8940000       236.9500000          -66.1620000       125.5400000         -133.3000000       148.3400000
 341          -90.7580000       240.2200000         -107.9700000       126.6800000          136.6200000       149.5300000
 342           27.0530000       243.5400000           31.9490000       127.8400000          127.0000000       150.7300000
 343           86.2090000       246.9000000          115.9500000       129.0100000         -170.0800000       151.9300000
 344          -29.3620000       250.3100000          -73.3400000       130.1800000         -356.9900000       153.1500000
 345           25.1640000       253.7600000         -294.5400000       131.3700000         -139.1900000       154.3700000
 346          282.9800000       257.2700000          -16.0370000       132.5600000         -219.1700000       155.6000000
 347         -121.0900000       260.8200000           12.1520000       133.7700000          -95.9130000       156.8400000
 348           96.3470000       264.4200000          324.4600000       134.9800000          280.4400000       158.0900000
 349          705.7600000       268.0800000           37.7600000       136.2100000         -176.8900000       159.3400000
 350         -323.3900000       271.7800000           55.0080000       137.4500000           90.5530000       160.6000000
 351         -235.8500000       275.5400000         -168.7500000       138.6900000         -253.1600000       161.8700000
 352         -203.8800000       279.3500000          -95.5520000       139.9500000           -1.0676000       163.1500000
 353         -391.7800000       283.2100000           -0.4896500       141.2200000          246.2600000       164.4400000
 354            6.7709000       287.1300000          165.5100000       142.5000000         -194.3000000       165.7300000
 355          271.8300000       291.1000000          133.4100000       143.7900000          -15.6700000       167.0300000
 356          175.2100000       295.1300000           78.9240000       145.0900000           49.2380000       168.3400000
 357          -72.0470000       299.2100000          146.3100000       146.4000000           85.9590000       169.6600000
 358         -454.0100000       303.3500000          174.4200000       147.7300000          -57.3920000       170.9900000
 359         -433.0200000       307.5500000           -2.4086000       149.0600000         -158.3900000       172.3200000
 360          120.5000000       311.8000000         -154.7000000       150.4100000          111.0700000       173.6700000
 361          355.8200000       316.1200000          -90.5180000       151.7700000          136.0300000       175.0200000
 362          138.4100000       320.5000000           35.1040000       153.1400000         -157.1200000       176.3800000
 363         -375.2400000       324.9400000          149.4200000       154.5200000         -247.7300000       177.7400000
 364         -207.9100000       329.4400000         -274.8100000       155.9100000          109.3200000       179.1200000
 365          428.5900000       334.0000000          -70.1830000       157.3200000         -177.8400000       180.5000000
 366          478.4000000       338.6300000           81.8790000       158.7400000          -13.6480000       181.8900000
 367          318.1500000       343.3300000            9.7097000       160.1700000           -7.4340000       183.2900000
 368          304.3500000       348.0900000          -26.8900000       161.6100000         -115.5900000       184.7000000
 369         -211.6500000       352.9100000          375.8700000       163.0600000          109.6900000       186.1200000
 370           47.4110000       357.8100000          -22.0990000       164.5300000           80.1500000       187.5500000
 371         -397.9300000       362.7700000          -51.5170000       166.0100000          -73.7400000       188.9800000
 372          579.6700000       367.8000000         -207.6700000       167.5000000          181.4900000       190.4200000
 373          660.5700000       372.9100000          219.7200000       169.0100000           26.7150000       191.8700000
 374         -378.5900000       378.0900000          144.5800000       170.5300000          -49.4550000       193.3300000
 375            3.7038000       383.3400000            7.6189000       172.0600000          215.6000000       194.8000000
 376          -43.1910000       388.6600000          -22.7750000       173.6100000           75.1460000       196.2800000
 377         -277.1300000       394.0600000         -115.4200000       175.1700000           27.3940000       197.7600000
 378           24.7160000       399.5400000         -276.2600000       176.7400000           63.8900000       199.2600000
 379          -49.8830000       405.0900000           86.3970000       178.3200000         -121.7800000       200.7600000
 380         -695.7700000       410.7300000          -10.7280000       179.9200000         -253.6600000       202.2700000
 381          324.7500000       416.4400000          -50.4040000       181.5400000         -436.4700000       203.7900000
 382           53.9500000       422.2400000          137.4900000       183.1700000          211.8200000       205.3200000
 383        -1065.3000000       428.1200000          -15.9440000       184.8100000         -107.9100000       206.8600000
 384          517.4200000       434.0800000          -58.3780000       186.4600000         -148.5000000       208.4100000
 385          567.3000000       440.1300000          157.9800000       188.1300000         -136.3000000       209.9700000
 386          875.2500000       446.2700000          -96.4810000       189.8200000         -534.3000000       211.5300000
 387          -11.0470000       452.4900000         -140.6700000       191.5200000          196.1400000       213.1100000
 388          -45.1890000       458.8100000           49.8400000       193.2300000          125.9000000       214.6900000
 389          666.6300000       465.2100000           96.2980000       194.9600000         -325.8300000       216.2800000
 390           18.4630000       471.7100000         -152.7800000       196.7100000          287.6100000       217.8900000
 391           55.7460000       478.3000000          -91.5500000       198.4700000          -49.1440000       219.5000000
 392          409.6800000       484.9900000          113.0800000       200.2400000          211.3500000       221.1200000
 393         -119.8100000       491.7800000            1.9176000       202.0300000         -208.4200000       222.7500000
 394           -7.2992000       498.6600000         -435.8200000       203.8400000         -333.1800000       224.3900000
 395          409.6200000       505.6500000         -315.3700000       205.6600000          434.3900000       226.0400000
 396         1017.6000000       512.7300000          198.6200000       207.5000000          -92.2350000       227.7000000
 397         -522.1600000       519.9300000          122.1000000       209.3500000          112.6500000       229.3600000
 398         -520.3700000       527.2200000          148.1500000       211.2200000          127.4200000       231.0400000
 399          102.2400000       534.6300000          -70.5010000       213.1000000          466.2700000       232.7300000
 400         -367.5100000       542.1400000          161.6700000       215.0000000          268.1900000       234.4300000
 401          -54.7280000       549.7600000         -441.0700000       216.9200000          -98.0120000       236.1300000
 402          315.0400000       557.5000000          100.5600000       218.8600000         -228.1000000       237.8500000
 403         -496.0000000       565.3500000          185.3200000       220.8100000         -271.0000000       239.5800000
 404          548.4200000       573.3200000           39.1890000       222.7800000          512.9400000       241.3200000
 405            1.4357000       581.4000000           92.4470000       224.7600000         -292.9200000       243.0600000
 406         -605.9000000       589.6100000         -244.8100000       226.7600000         -297.1100000       244.8200000
 407          133.7600000       597.9400000         -113.2500000       228.7800000          278.6100000       246.5900000
 408          644.5200000       606.3900000          331.8700000       230.8200000           90.9230000       248.3700000
 409          167.0400000       614.9700000          307.4400000       232.8700000         -256.5500000       250.1600000
 410          263.9100000       623.6900000           51.6740000       234.9400000          -45.9630000       251.9600000
 411          685.2300000       632.5200000          227.0700000       237.0300000          146.9200000       253.7700000
 412          506.6100000       641.5000000           31.2750000       239.1400000         -225.9900000       255.5900000
 413          401.2100000       650.6100000          327.4600000       241.2600000           15.9360000       257.4200000
 414         1668.7000000       659.8600000          257.8300000       243.4100000          609.6100000       259.2600000
 415          422.2300000       669.2400000          -17.0250000       245.5700000           20.0830000       261.1100000
 416        -1481.3000000       678.7700000          105.0400000       247.7500000          351.8400000       262.9800000
 417         -539.2100000       688.4500000          -46.1480000       249.9400000          -10.9760000       264.8500000
 418          467.1600000       698.2600000          152.8500000       252.1600000          229.0100000       266.7400000
 419          190.3100000       708.2400000          192.5400000       254.4000000           45.6770000       268.6400000
 420         -965.6900000       718.3600000          126.1400000       256.6500000         -339.3700000       270.5500000
 421         -477.8800000       728.6400000           17.0420000       258.9300000          -83.5940000       272.4700000
 422          -44.4790000       739.0700000          181.7300000       261.2200000          296.1700000       274.4000000
 423          365.0300000       749.6700000         -126.1900000       263.5300000          360.5300000       276.3400000
 424          262.7700000       760.4200000          -55.4210000       265.8600000          -59.5590000       278.3000000
 425          576.5500000       771.3500000          103.0500000       268.2200000          -24.0960000       280.2600000
 426         1701.4000000       782.4300000         -106.7800000       270.5900000          172.9700000       282.2400000
 427         -203.3500000       793.7000000         -159.1500000       272.9800000         -252.8200000       284.2300000
 428        -1390.1000000       805.1300000          142.5500000       275.3900000          -81.4150000       286.2400000
 429          883.4800000       816.7400000         -467.1000000       277.8200000         -335.9900000       288.2500000
 430          527.2500000       828.5300000         -315.3300000       280.2800000           15.3840000       290.2800000
 431         -657.5000000       840.5100000           12.4230000       282.7500000          615.6200000       292.3200000
 432         -162.5600000       852.6600000         -458.5400000       285.2500000         -288.2700000       294.3700000
 433         1502.9000000       865.0100000          230.5100000       287.7600000         -152.6200000       296.4400000
 434          824.6800000       877.5500000         -234.7800000       290.3000000          280.2200000       298.5200000
 435         1671.5000000       890.2800000          -31.6280000       292.8600000          150.2000000       300.6100000
 436         -883.7700000       903.2100000         -154.3900000       295.4400000          112.3500000       302.7100000
 437            9.2301000       916.3500000          350.4700000       298.0400000           41.9060000       304.8300000
 438          428.6400000       929.6800000          268.1700000       300.6700000           36.0300000       306.9600000
 439           67.6240000       943.2300000         -195.6200000       303.3200000          462.8200000       309.1000000
 440          142.7600000       956.9800000          262.1400000       305.9900000         -172.5300000       311.2600000
 441          299.2400000       970.9500000          286.0200000       308.6800000          293.9100000       313.4300000
 442          -46.2390000       985.1400000         -255.9800000       311.4000000          311.6000000       315.6100000
 443         -574.6200000       999.5500000         -130.4200000       314.1400000         -364.0200000       317.8100000
 444          821.1100000      1014.2000000          -99.8510000       316.9000000           51.7670000       320.0200000
 445        -1004.7000000      1029.1000000          149.0700000       319.6800000          256.1700000       322.2400000
 446           -7.1638000      1044.2000000         -204.6000000       322.4900000           85.4850000       324.4800000
 447         1368.0000000      1059.5000000          182.9300000       325.3300000         -219.5000000       326.7300000
 448           37.7540000      1075.1000000         -149.2100000       328.1900000          -53.1810000       329.0000000
 449         -988.2300000      1090.9000000          193.6700000       331.0700000          319.0400000       331.2800000
 450         -915.7900000      1107.0000000         -415.7600000       333.9800000         -258.5200000       333.5700000
 451         -854.2000000      1123.3000000         -207.5900000       336.9100000          -96.4230000       335.8800000
 452         2216.6000000      1139.9000000         -222.4500000       339.8700000         -162.0300000       338.2100000
 453         1275.2000000      1156.7000000          371.5800000       342.8600000          304.1900000       340.5400000
 454        -1605.0000000      1173.8000000         -579.3200000       345.8700000           -5.9685000       342.9000000
 455         -265.6600000      1191.2000000          133.5300000       348.9000000          -90.8700000       345.2600000
 456        -1636.2000000      1208.8000000          439.8900000       351.9700000            0.6680700       347.6500000
 457         1179.8000000      1226.8000000          -12.7630000       355.0500000         -103.1000000       350.0400000
 458         1197.3000000      1245.0000000         -248.5300000       358.1700000          534.3200000       352.4600000
 459          416.8200000      1263.5000000          388.2200000       361.3200000         -371.6900000       354.8800000
 460          760.4700000      1282.3000000         -607.0900000       364.4900000         -189.3200000       357.3300000
 461          778.3300000      1301.4000000         -149.4000000       367.6900000         -296.6100000       359.7800000
 462        -2238.5000000      1320.8000000          -76.9700000       370.9100000          -14.0990000       362.2600000
 463        -1533.2000000      1340.5000000           44.0710000       374.1700000          -79.7600000       364.7500000
 464          701.6400000      1360.6000000          108.2600000       377.4600000          133.3100000       367.2500000
 465         1043.1000000      1380.9000000         -696.3400000       380.7700000         -293.4600000       369.7700000
 466         1354.7000000      1401.6000000          553.7200000       384.1100000          400.1900000       372.3100000
 467        -2239.2000000      1422.6000000         -686.0500000       387.4900000         -288.5500000       374.8600000
 468          262.6800000      1444.0000000          -12.2990000       390.8900000         -506.9300000       377.4200000
 469         -155.3900000      1465.7000000           52.8700000       394.3200000          271.1200000       380.0100000
 470        -2261.0000000      1487.7000000         -261.5400000       397.7900000         -237.7300000       382.6100000
 471         -607.7000000      1510.2000000          124.0900000       401.2800000         -293.8700000       385.2200000
 472          647.0100000      1532.9000000          518.6600000       404.8100000           95.1680000       387.8500000
 473         -402.9000000      1556.1000000         -663.1200000       408.3600000         -427.3400000       390.5000000
 474          275.9600000      1579.6000000         -130.5400000       411.9500000         -524.1700000       393.1700000
 475         2393.2000000      1603.5000000         -610.2700000       415.5700000          111.5800000       395.8500000
 476         1078.7000000      1627.8000000          700.3900000       419.2300000          -62.4140000       398.5400000
 477         2461.6000000      1652.5000000         -140.7300000       422.9100000         -691.2100000       401.2600000
 478        -1847.6000000      1677.7000000          193.2100000       426.6300000          346.8500000       403.9900000
 479        -1309.3000000      1703.2000000          213.7500000       430.3800000          742.6700000       406.7300000
 480         -442.0700000      1729.1000000          -88.3000000       434.1700000         -650.3000000       409.5000000
 481        -3180.4000000      1755.5000000          549.5800000       437.9900000         -521.8600000       412.2800000
 482          574.0900000      1782.4000000         -582.7700000       441.8400000          300.1400000       415.0700000
 483        -1190.0000000      1809.6000000          281.4600000       445.7300000          -79.2040000       417.8900000
 484        -1312.2000000      1837.4000000         -150.9900000       449.6600000          526.6900000       420.7200000
 485         -931.0700000      1865.6000000           11.5020000       453.6200000         -467.8100000       423.5700000
 486         -938.9400000      1894.2000000          379.6400000       457.6100000         -971.9800000       426.4300000
 487         3007.3000000      1923.4000000          158.9300000       461.6400000           -9.8182000       429.3200000
 488         1771.5000000      1953.0000000         -218.1900000       465.7100000         -570.2300000       432.2200000
 489         -896.0000000      1983.2000000         -364.1100000       469.8100000          234.9500000       435.1300000
 490          806.2000000      2013.9000000          667.0800000       473.9500000         -881.6600000       438.0700000
 491          341.3100000      2045.1000000         -123.1000000       478.1300000          271.2600000       441.0200000
 492          647.1400000      2076.8000000         -684.0500000       482.3400000          -61.9870000       443.9900000
 493        -4765.4000000      2109.0000000          -49.4830000       486.5900000          384.8800000       446.9800000
 494        -2204.7000000      2141.9000000          560.4500000       490.8800000           82.1110000       449.9800000
 495         3357.4000000      2175.2000000         -445.6800000       495.2100000          671.1100000       453.0000000
 496         2463.5000000      2209.2000000         -157.0600000       499.5700000         -717.8800000       456.0400000
 497         3480.6000000      2243.7000000         1216.6000000       503.9800000         -313.2600000       459.1000000
 498        -2092.7000000      2278.9000000         -424.7400000       508.4200000         -255.1700000       462.1800000
 499        -3739.2000000      2314.6000000          263.1500000       512.9100000          -18.1920000       465.2700000
 500        -1062.9000000      2350.9000000           32.7090000       517.4300000           -9.8952000       468.3800000
 501         1186.8000000      2387.9000000         -518.3800000       521.9900000         -330.5100000       471.5100000
 502        -2172.7000000      2425.6000000           -7.7563000       526.5900000         -108.0200000       474.6600000
 503          386.1200000      2463.8000000          491.7400000       531.2400000          461.9600000       477.8300000
 504         -390.6500000      2502.8000000         -449.1800000       535.9200000          598.3300000       481.0100000
 505         3924.2000000      2542.4000000          283.5900000       540.6500000          -53.0720000       484.2100000
 506        -1912.0000000      2582.7000000         -496.7500000       545.4100000          107.4900000       487.4400000
 507        -1959.5000000      2623.7000000         1084.7000000       550.2200000          294.1900000       490.6800000
 508         4105.9000000      2665.4000000         -535.5900000       555.0700000         -123.0600000       493.9300000
 509         2463.7000000      2707.8000000         -173.3600000       559.9700000           21.2250000       497.2100000
 510          179.8700000      2750.9000000         -248.7600000       564.9000000         -503.7500000       500.5100000
 511        -3629.3000000      2794.9000000         -107.0800000       569.8800000          208.0400000       503.8200000
 512         2287.6000000      2839.5000000          274.0900000       574.9000000         -935.8600000       507.1500000
 513        -1969.4000000      2885.0000000         -893.3700000       579.9700000         -708.8600000       510.5000000
 514         -247.2400000      2931.2000000           47.2340000       585.0700000          670.7300000       513.8700000
 515         -693.2400000      2978.2000000          392.9300000       590.2300000          804.5300000       517.2600000
 516         -793.2500000      3026.0000000          -55.4530000       595.4200000         -826.7000000       520.6700000
 517          665.9900000      3074.7000000         -167.7400000       600.6700000         -161.9200000       524.1000000
 518        -1233.7000000      3124.1000000         -811.5000000       605.9500000         -838.6400000       527.5500000
 519         3152.2000000      3174.4000000        -1044.8000000       611.2800000          292.3500000       531.0100000
 520          834.3300000      3225.6000000          524.6500000       616.6600000          438.7700000       534.5000000
 521        -2168.3000000      3277.7000000          161.0700000       622.0900000          -83.8360000       538.0000000
 522         1830.5000000      3330.6000000          449.0100000       627.5500000         -453.5600000       541.5300000
 523        -3952.4000000      3384.4000000         -235.7000000       633.0700000         -273.1200000       545.0700000
 524        -3029.2000000      3439.2000000        -1185.9000000       638.6300000         -114.6000000       548.6400000
 525         4064.5000000      3494.8000000         -418.7000000       644.2500000          629.4100000       552.2200000
 526         3328.4000000      3551.4000000         -523.1500000       649.9000000         1036.7000000       555.8200000
 527         2024.3000000      3608.9000000          528.3900000       655.6100000         -599.9000000       559.4500000
 528        -2250.3000000      3667.4000000          587.4000000       661.3600000         -526.2100000       563.0900000
 529        -6364.9000000      3726.9000000          406.6900000       667.1700000          313.8500000       566.7600000
 530         3505.1000000      3787.3000000          484.0300000       673.0200000          367.6300000       570.4400000
 531         3976.1000000      3848.8000000         -416.2200000       678.9200000         -705.4200000       574.1400000
 532         -161.8800000      3911.2000000         -217.1400000       684.8800000          -32.9050000       577.8700000
 533        -2576.3000000      3974.7000000         -777.1900000       690.8800000          444.4800000       581.6100000
 534        -5006.3000000      4039.2000000         -520.3800000       696.9300000           38.3810000       585.3800000
 535         2400.9000000      4104.8000000         -991.6100000       703.0400000          293.1000000       589.1700000
 536           98.9260000      4171.5000000          491.4600000       709.1900000         -697.9100000       592.9700000
 537         -518.6000000      4239.2000000          278.9200000       715.4000000        -1281.9000000       596.8000000
 538           21.0540000      4308.0000000         1115.5000000       721.6600000          651.8600000       600.6500000
 539        -4468.7000000      4377.9000000          554.5300000       727.9800000         -131.4300000       604.5200000
 540         -662.1300000      4448.9000000         1087.9000000       734.3500000          823.8800000       608.4100000
 541         1335.4000000      4521.1000000        -1840.1000000       740.7700000         -631.3500000       612.3300000
 542         1597.2000000      4594.4000000        -1093.5000000       747.2500000          536.9400000       616.2600000
 543        -5991.9000000      4668.9000000          297.0200000       753.7800000          347.0700000       620.2200000
 544         5694.4000000      4744.6000000         -261.2800000       760.3700000         1132.7000000       624.2000000
 545         -996.7700000      4821.4000000         1007.5000000       767.0100000          115.2800000       628.2000000
 546        -6075.9000000      4899.5000000          605.6800000       773.7200000        -1173.0000000       632.2200000
 547        -1884.1000000      4978.8000000         -487.5300000       780.4700000          612.3400000       636.2600000
 548         2423.7000000      5059.4000000         -597.4100000       787.2900000         1301.5000000       640.3300000
 549         5345.1000000      5141.3000000         -205.2100000       794.1700000          228.8800000       644.4100000
 550         3511.9000000      5224.3000000           11.8510000       801.1000000          -45.2530000       648.5200000
 551         2771.1000000      5308.8000000         1681.1000000       808.1000000         -144.4300000       652.6600000
 552         1494.9000000      5394.5000000        -1294.0000000       815.1600000          340.7900000       656.8100000
 553         7658.6000000      5481.6000000         -153.4900000       822.2700000          602.7600000       660.9900000
 554        -9604.7000000      5570.1000000         -147.5400000       829.4500000           93.4390000       665.1900000
 555        13469.0000000      5660.0000000         -323.7500000       836.7000000         -669.1900000       669.4200000
 556        -3326.9000000      5751.2000000         -120.9400000       844.0000000          617.8000000       673.6600000
 557        -1711.1000000      5843.9000000           15.2780000       851.3700000         1926.7000000       677.9300000
 558        -5583.0000000      5938.1000000         1039.3000000       858.8100000         -451.8000000       682.2300000
 559         7846.5000000      6033.7000000          -21.9940000       866.3100000          633.0200000       686.5500000
 560         6425.5000000      6130.9000000           21.2480000       873.8800000          655.9200000       690.8900000
 561        -2332.5000000      6229.6000000          697.8300000       881.5100000          817.2300000       695.2500000
 562         7497.0000000      6329.8000000         1450.2000000       889.2200000          727.7600000       699.6400000
 563         2994.7000000      6431.6000000          189.9800000       896.9900000         -441.2700000       704.0500000
 564         7616.3000000      6535.2000000         -474.2100000       904.8300000          199.5900000       708.4900000
 565        -2357.4000000      6640.2000000          100.5900000       912.7500000          333.9200000       712.9500000
 566        -1074.0000000      6747.1000000        -1058.9000000       920.7300000          180.4400000       717.4400000
 567        -6076.6000000      6855.6000000         -763.2700000       928.7900000         -719.1000000       721.9500000
 568       -13539.0000000      6965.9000000         -549.5100000       936.9200000          278.5100000       726.4800000
 569        -1080.6000000      7078.0000000        -1927.1000000       945.1200000         -707.0600000       731.0400000
 570         8127.8000000      7191.9000000         -424.9500000       953.4000000          592.2400000       735.6300000
 571         8339.1000000      7307.8000000          799.0300000       961.7600000         -288.6600000       740.2400000
 572        -1631.5000000      7425.4000000          417.4000000       970.1900000        -1268.0000000       744.8700000
 573        -1054.6000000      7545.1000000          841.3000000       978.7100000         1700.9000000       749.5300000
 574        -6250.9000000      7666.7000000         -705.5400000       987.3000000         -233.1300000       754.2200000
 575        -1392.2000000      7790.3000000          581.7600000       995.9700000         -606.7400000       758.9300000
 576         5325.8000000      7916.1000000          205.0800000      1004.7000000           70.2130000       763.6700000
 577        10857.0000000      8044.0000000         1403.1000000      1013.6000000         -778.8800000       768.4400000
 578         4132.2000000      8174.0000000        -1349.3000000      1022.5000000         -596.3400000       773.2200000
 579         1464.3000000      8306.2000000        -1252.7000000      1031.5000000          -75.4760000       778.0400000
 580        10506.0000000      8440.8000000          493.3500000      1040.6000000         -337.6800000       782.8900000
 581        21879.0000000      8577.5000000        -1228.8000000      1049.7000000         -115.7400000       787.7500000
 582        -9077.5000000      8716.8000000         1252.8000000      1059.0000000         -106.2300000       792.6500000
 583       -16967.0000000      8858.3000000        -1542.5000000      1068.3000000         -530.2200000       797.5700000
 584        -6851.9000000      9002.4000000        -1816.9000000      1077.8000000          -64.2660000       802.5200000
 585       -13075.0000000      9149.0000000          118.5900000      1087.3000000          442.7000000       807.5000000
 586         7928.8000000      9298.2000000         1044.2000000      1096.9000000          388.0600000       812.5100000
 587         -432.5600000      9450.0000000           49.5480000      1106.6000000        -1419.7000000       817.5400000
 588       -10805.0000000      9604.6000000         -792.5700000      1116.4000000         1420.0000000       822.6000000
 589         -720.3600000      9761.8000000         -502.3500000      1126.3000000         1568.4000000       827.6900000
 590         -152.0700000      9921.9000000        -2026.7000000      1136.3000000         -378.6600000       832.8100000
 591        -7008.6000000     10085.0000000         -123.1800000      1146.4000000         -791.9200000       837.9500000
 592        -7395.0000000     10251.0000000         1071.8000000      1156.6000000            8.9879000       843.1200000
 593        -1732.6000000     10420.0000000          446.7700000      1166.9000000          292.8700000       848.3200000
 594       -14667.0000000     10592.0000000          -33.0050000      1177.3000000         -308.7800000       853.5500000
 595        -3533.1000000     10767.0000000        -2106.8000000      1187.8000000          948.1600000       858.8100000
 596         5146.7000000     10945.0000000           79.7500000      1198.4000000         -700.3700000       864.1000000
 597        -3567.9000000     11127.0000000         -638.8300000      1209.1000000         -984.5900000       869.4200000
 598          201.2000000     11312.0000000         -549.8100000      1219.9000000           84.2910000       874.7600000
 599       -19231.0000000     11500.0000000         1167.7000000      1230.8000000         -714.0800000       880.1400000
 600        -3030.6000000     11692.0000000         1821.3000000      1241.8000000         -390.7500000       885.5500000
 601         -690.0900000     11887.0000000         -687.0100000      1252.9000000         -226.8300000       890.9800000
 602       -20700.0000000     12086.0000000        -1339.0000000      1264.2000000        -2373.8000000       896.4500000
 603        -1560.1000000     12288.0000000        -1162.4000000      1275.5000000         -489.0300000       901.9500000
 604        -3984.5000000     12495.0000000         1175.4000000      1287.0000000          376.7600000       907.4700000
 605        -4049.6000000     12705.0000000          412.1900000      1298.6000000         -360.9400000       913.0300000
 606        -6912.2000000     12919.0000000         1787.3000000      1310.3000000          198.6200000       918.6200000
 607        -4852.1000000     13137.0000000          319.6800000      1322.1000000         1079.5000000       924.2400000
 608        -2438.0000000     13359.0000000          983.7500000      1334.0000000        -1016.8000000       929.8900000
 609        -4952.4000000     13585.0000000          633.5100000      1346.1000000         -328.5600000       935.5700000
 610       -13114.0000000     13815.0000000        -2425.6000000      1358.2000000        -1101.5000000       941.2800000
 611        10844.0000000     14050.0000000        -3021.9000000      1370.5000000          579.1300000       947.0300000
 612        -3623.7000000     14289.0000000         -525.2700000      1382.9000000          665.2500000       952.8000000
 613        18023.0000000     14532.0000000         2258.6000000      1395.5000000         -239.3000000       958.6100000
 614       -24806.0000000     14780.0000000        -1407.9000000      1408.1000000         -619.1000000       964.4500000
 615        -4024.2000000     15032.0000000        -1303.0000000      1420.9000000          572.4200000       970.3300000
 616         5680.2000000     15289.0000000        -1489.2000000      1433.9000000          158.1200000       976.2400000
 617        -9446.8000000     15551.0000000        -1426.7000000      1446.9000000         -406.1700000       982.1700000
 618        -4896.1000000     15817.0000000          492.9800000      1460.1000000          532.3400000       988.1500000
 619        -1099.8000000     16088.0000000         2340.6000000      1473.4000000          221.5500000       994.1500000
 620       -21997.0000000     16364.0000000        -3163.3000000      1486.9000000         -114.7300000      1000.2000000
 621        19013.0000000     16646.0000000        -1494.4000000      1500.5000000         2308.0000000      1006.3000000
 622         2455.9000000     16932.0000000          624.4100000      1514.2000000        -2857.2000000      1012.4000000
 623       -18090.0000000     17224.0000000         1194.8000000      1528.1000000          564.3300000      1018.5000000
 624       -13555.0000000     17520.0000000        -1608.6000000      1542.1000000          246.7600000      1024.7000000
 625        -3206.5000000     17823.0000000         1766.4000000      1556.3000000          118.8800000      1030.9000000
 626       -13342.0000000     18130.0000000        -1027.8000000      1570.6000000         -928.8300000      1037.1000000
 627       -22011.0000000     18443.0000000          572.5400000      1585.1000000        -2153.2000000      1043.4000000
 628         8055.4000000     18762.0000000          -95.7310000      1599.7000000          541.8000000      1049.7000000
 629       -35280.0000000     19086.0000000         -764.3000000      1614.4000000         1110.9000000      1056.1000000
 630         2008.1000000     19417.0000000         1867.6000000      1629.3000000         1784.0000000      1062.5000000
 631        -6408.2000000     19753.0000000          461.6900000      1644.4000000         1041.0000000      1068.9000000
 632        19773.0000000     20095.0000000         2940.9000000      1659.6000000        -1073.9000000      1075.4000000
 633        35903.0000000     20443.0000000        -1004.9000000      1675.0000000          430.7500000      1081.9000000
 634       -26569.0000000     20797.0000000        -2012.2000000      1690.5000000          -72.2210000      1088.4000000
 635        16634.0000000     21157.0000000          378.7900000      1706.2000000        -1757.8000000      1095.0000000
 636         3999.6000000     21524.0000000        -1703.6000000      1722.1000000         -285.5500000      1101.6000000
 637       -27491.0000000     21898.0000000          486.4500000      1738.1000000         -407.6000000      1108.2000000
 638       -15469.0000000     22277.0000000          162.3300000      1754.3000000         -408.4800000      1114.9000000
 639       -38197.0000000     22664.0000000         3539.6000000      1770.7000000         -363.6400000      1121.6000000
 640         8646.4000000     23057.0000000         -151.6500000      1787.3000000        -1203.6000000      1128.4000000
 641         3800.2000000     23457.0000000          785.2300000      1804.0000000         2424.9000000      1135.2000000
 642        17655.0000000     23864.0000000          133.7000000      1820.9000000          463.9900000      1142.0000000
 643         -588.2800000     24279.0000000        -2327.1000000      1838.0000000           53.7000000      1148.9000000
 644       -16390.0000000     24700.0000000        -1255.8000000      1855.2000000         -362.2400000      1155.8000000
 645       -15641.0000000     25129.0000000          623.0400000      1872.6000000         1792.9000000      1162.7000000
 646       -29033.0000000     25566.0000000         2836.8000000      1890.3000000         -537.5000000      1169.7000000
 647        16228.0000000     26010.0000000        -1933.6000000      1908.1000000        -1771.6000000      1176.7000000
 648        47239.0000000     26462.0000000          -53.2550000      1926.1000000           31.4520000      1183.8000000
 649        31347.0000000     26921.0000000           33.4190000      1944.3000000         1724.3000000      1190.9000000
 650        45802.0000000     27389.0000000        -1953.4000000      1962.7000000         -394.7600000      1198.0000000
 651        54533.0000000     27865.0000000          476.0900000      1981.3000000        -1797.6000000      1205.2000000
 652       -50679.0000000     28350.0000000        -1552.3000000      2000.0000000          905.4300000      1212.4000000
 653          953.3900000     28843.0000000         -534.6300000      2019.0000000         1462.5000000      1219.7000000
 654        48185.0000000     29345.0000000        -2069.3000000      2038.2000000         -234.6100000      1227.0000000
 655          166.9200000     29856.0000000          450.6400000      2057.6000000        -1819.1000000      1234.4000000
 656       -13537.0000000     30376.0000000         3195.9000000      2077.2000000         1153.6000000      1241.7000000
 657        -3313.4000000     30905.0000000         2661.4000000      2097.1000000          184.8500000      1249.2000000
 658          786.8500000     31444.0000000        -1046.5000000      2117.1000000        -1870.7000000      1256.6000000
 659       -30553.0000000     31992.0000000          141.1000000      2137.4000000        -2672.7000000      1264.2000000
 660        24153.0000000     32550.0000000          269.2500000      2157.9000000        -1359.0000000      1271.7000000
 661            0.8993800     33119.0000000        -2422.5000000      2178.5000000        -1293.9000000      1279.3000000
 662        20189.0000000     33698.0000000          171.0100000      2199.5000000          970.2400000      1286.9000000
 663        18182.0000000     34287.0000000         2699.6000000      2220.6000000        -1969.1000000      1294.6000000
 664       -44431.0000000     34887.0000000          440.8100000      2242.0000000          113.7800000      1302.4000000
 665        29914.0000000     35498.0000000          279.3300000      2263.6000000          114.1000000      1310.1000000
 666         8534.9000000     36121.0000000        -1270.7000000      2285.5000000        -2395.7000000      1317.9000000
 667        10267.0000000     36755.0000000        -1927.6000000      2307.6000000         -891.6800000      1325.8000000
 668        -3981.8000000     37402.0000000        -1893.1000000      2329.9000000        -1089.5000000      1333.7000000
 669       -15042.0000000     38059.0000000         2883.2000000      2352.5000000        -1396.5000000      1341.6000000
 670        69393.0000000     38730.0000000         4756.5000000      2375.3000000         -756.6600000      1349.6000000
 671        30890.0000000     39413.0000000         1483.9000000      2398.4000000         -712.1900000      1357.6000000
 672        16674.0000000     40110.0000000         1897.4000000      2421.8000000          840.2300000      1365.7000000
 673        46348.0000000     40819.0000000          557.7900000      2445.4000000        -1320.3000000      1373.8000000
 674        21707.0000000     41542.0000000        -3644.4000000      2469.2000000         -774.9500000      1382.0000000
 675       -40631.0000000     42280.0000000        -2226.4000000      2493.3000000         -709.0400000      1390.2000000
 676       -44333.0000000     43031.0000000        -1598.0000000      2517.7000000         1373.1000000      1398.4000000
 677       -34506.0000000     43798.0000000         -128.5000000      2542.4000000         1880.3000000      1406.7000000
 678        51321.0000000     44580.0000000         4112.3000000      2567.3000000        -2605.0000000      1415.0000000
 679        88515.0000000     45377.0000000         1607.1000000      2592.5000000         1419.3000000      1423.4000000
 680        48242.0000000     46189.0000000        -4711.8000000      2617.9000000          410.7700000      1431.8000000
 681         2809.3000000     47018.0000000           44.4730000      2643.7000000        -2387.5000000      1440.3000000
 682        86890.0000000     47863.0000000         7559.2000000      2669.7000000          817.1200000      1448.8000000
 683         1882.2000000     48726.0000000        -5932.7000000      2696.0000000          956.0600000      1457.4000000
 684       -38509.0000000     49607.0000000         2582.4000000      2722.7000000          206.2500000      1466.0000000
 685       -28646.0000000     50504.0000000        -3879.9000000      2749.6000000        -1283.4000000      1474.6000000
 686       -59029.0000000     51421.0000000        -3505.4000000      2776.8000000        -2793.7000000      1483.3000000
 687       -18069.0000000     52355.0000000        -4303.9000000      2804.2000000          849.7900000      1492.1000000
 688       120870.0000000     53310.0000000         2279.8000000      2832.0000000         -319.7900000      1500.8000000
 689       142440.0000000     54284.0000000        -2551.6000000      2860.2000000         -959.9500000      1509.7000000
 690        27127.0000000     55279.0000000        -1498.6000000      2888.6000000         1202.9000000      1518.5000000
 691      -127530.0000000     56294.0000000         4747.7000000      2917.3000000         2957.3000000      1527.5000000
 692       -70995.0000000     57332.0000000        -2642.1000000      2946.3000000          807.1000000      1536.4000000
 693       -10129.0000000     58390.0000000          -47.3690000      2975.7000000          405.5800000      1545.4000000
 694        41555.0000000     59472.0000000        -2021.0000000      3005.3000000         -598.2200000      1554.5000000
 695       118340.0000000     60576.0000000          649.5500000      3035.3000000         -285.7000000      1563.6000000
 696       132760.0000000     61703.0000000         6196.0000000      3065.7000000         1117.2000000      1572.8000000
 697       -24561.0000000     62855.0000000        -2352.6000000      3096.3000000         1290.4000000      1582.0000000
 698       -10697.0000000     64033.0000000         1960.5000000      3127.3000000         -569.6000000      1591.2000000
 699        30675.0000000     65235.0000000        -4849.7000000      3158.6000000         -111.8600000      1600.5000000
 700        96958.0000000     66463.0000000        -4638.4000000      3190.3000000        -1062.1000000      1609.9000000
 701        12642.0000000     67719.0000000        -2033.2000000      3222.3000000         1910.3000000      1619.2000000
 702       -81578.0000000     69001.0000000         1392.2000000      3254.7000000        -1508.5000000      1628.7000000
 703        96513.0000000     70311.0000000         -809.8900000      3287.4000000        -1771.8000000      1638.2000000
 704        31318.0000000     71650.0000000        -2082.7000000      3320.4000000         3016.9000000      1647.7000000
 705       -99136.0000000     73020.0000000        -1710.1000000      3353.9000000         -174.1500000      1657.3000000
 706       -21499.0000000     74417.0000000        -3768.8000000      3387.6000000        -5046.9000000      1666.9000000
 707       112020.0000000     75847.0000000         2486.9000000      3421.8000000          637.5100000      1676.5000000
 708       120150.0000000     77309.0000000         6152.8000000      3456.3000000        -3673.3000000      1686.3000000
 709       -87228.0000000     78803.0000000         1835.5000000      3491.2000000         3040.2000000      1696.0000000
 710       -56671.0000000     80329.0000000        -2046.6000000      3526.5000000        -1527.1000000      1705.8000000
 711        94969.0000000     81889.0000000          253.2900000      3562.1000000          229.5500000      1715.7000000
 712       -71975.0000000     83485.0000000        -2164.9000000      3598.2000000         1170.7000000      1725.6000000
 713       -50662.0000000     85118.0000000        -7754.0000000      3634.6000000        -2739.2000000      1735.6000000
 714       -41971.0000000     86784.0000000         -525.8600000      3671.4000000         1357.1000000      1745.6000000
 715      -143290.0000000     88489.0000000         5836.0000000      3708.6000000        -1179.1000000      1755.6000000
 716       -24912.0000000     90232.0000000          186.7600000      3746.2000000         3264.1000000      1765.7000000
 717       227480.0000000     92013.0000000          -37.7060000      3784.3000000         1730.2000000      1775.9000000
 718       -93594.0000000     93835.0000000         1632.7000000      3822.7000000          261.1900000      1786.1000000
 719      -174350.0000000     95697.0000000        -4148.0000000      3861.6000000         3361.1000000      1796.3000000
 720        23450.0000000     97601.0000000         -691.1900000      3900.8000000         2345.0000000      1806.6000000
 721        74115.0000000     99546.0000000         2562.2000000      3940.5000000         2563.3000000      1816.9000000
 722       114110.0000000    101530.0000000         1869.1000000      3980.7000000          843.2800000      1827.3000000
 723        66465.0000000    103570.0000000         3965.6000000      4021.3000000        -1044.9000000      1837.8000000
 724      -106080.0000000    105650.0000000           67.5130000      4062.3000000         1549.1000000      1848.3000000
 725        38877.0000000    107770.0000000         2911.9000000      4103.7000000        -2158.0000000      1858.8000000
 726        71317.0000000    109940.0000000        -3655.2000000      4145.6000000         1481.4000000      1869.4000000
 727      -150230.0000000    112160.0000000         -792.7200000      4188.0000000        -2426.7000000      1880.0000000
 728       -27142.0000000    114430.0000000        10312.0000000      4230.9000000        -2295.0000000      1890.7000000
 729       -97668.0000000    116750.0000000         1234.6000000      4274.2000000         1343.1000000      1901.4000000
 730        34791.0000000    119110.0000000        -2941.6000000      4317.9000000         -614.4600000      1912.2000000
 731        25551.0000000    121530.0000000        -3806.9000000      4362.2000000         1419.0000000      1923.1000000
 732       363250.0000000    124000.0000000        11512.0000000      4407.0000000          891.2100000      1934.0000000
 733         9713.6000000    126520.0000000        -1022.4000000      4452.2000000         -280.4500000      1944.9000000
 734       -36536.0000000    129110.0000000         6616.9000000      4498.0000000        -2343.6000000      1955.9000000
 735      -218130.0000000    131740.0000000         2069.4000000      4544.2000000        -1146.6000000      1966.9000000
 736        46707.0000000    134430.0000000          394.8400000      4591.0000000        -2165.5000000      1978.0000000
 737       141810.0000000    137170.0000000         3242.8000000      4638.3000000        -1833.0000000      1989.2000000
 738       284070.0000000    139970.0000000          985.4700000      4686.2000000        -1627.5000000      2000.4000000
 739       116330.0000000    142840.0000000          710.8200000      4734.6000000          744.2400000      2011.6000000
 740       118970.0000000    145760.0000000        -4058.3000000      4783.5000000         -382.9200000      2022.9000000
 741       -85711.0000000    148740.0000000        -2204.2000000      4833.0000000        -3161.9000000      2034.3000000
 742       -17889.0000000    151780.0000000         5115.1000000      4883.0000000          -74.0550000      2045.7000000
 743        54473.0000000    154880.0000000         1688.9000000      4933.6000000         -158.7100000      2057.1000000
 744       -76694.0000000    158050.0000000         5854.6000000      4984.8000000         1072.5000000      2068.7000000
 745       150150.0000000    161280.0000000         3641.0000000      5036.6000000          124.6900000      2080.2000000
 746       189040.0000000    164570.0000000         1116.3000000      5089.0000000        -1003.6000000      2091.8000000
 747       -44819.0000000    167940.0000000         3309.4000000      5142.0000000          981.0600000      2103.5000000
 748      -118230.0000000    171360.0000000        -4378.7000000      5195.6000000         3205.2000000      2115.3000000
 749       234580.0000000    174850.0000000        -1250.3000000      5249.8000000         2384.6000000      2127.0000000
 750       -73401.0000000    178410.0000000        10764.0000000      5304.7000000         2648.1000000      2138.9000000
 751      -434980.0000000    182040.0000000         3180.9000000      5360.3000000         -118.4400000      2150.8000000
 752      -139300.0000000    185740.0000000        -2799.2000000      5416.4000000          356.6400000      2162.7000000
 753        55434.0000000    189510.0000000       -10974.0000000      5473.3000000        -3233.0000000      2174.7000000
 754      -300930.0000000    193340.0000000         2994.4000000      5530.8000000         -114.2900000      2186.8000000
 755       130860.0000000    197250.0000000        10551.0000000      5589.0000000          133.1000000      2198.9000000
 756       -52967.0000000    201230.0000000         6472.5000000      5647.9000000        -2327.9000000      2211.1000000
 757      -381920.0000000    205290.0000000       -11399.0000000      5707.6000000         -263.2200000      2223.3000000
 758        51393.0000000    209420.0000000       -12102.0000000      5767.9000000         2490.2000000      2235.6000000
 759       -71856.0000000    213630.0000000        -1890.3000000      5829.0000000         3465.3000000      2248.0000000
 760       -72431.0000000    217900.0000000         9965.8000000      5890.8000000         -567.2700000      2260.4000000
 761       -49390.0000000    222270.0000000         2268.9000000      5953.4000000         1599.5000000      2272.9000000
 762       204660.0000000    226700.0000000       -10854.0000000      6016.8000000        -4138.9000000      2285.4000000
 763       104380.0000000    231220.0000000         5826.2000000      6080.9000000        -1979.7000000      2298.0000000
 764       282860.0000000    235820.0000000         2343.9000000      6145.9000000         5305.1000000      2310.6000000
 765       -59566.0000000    240500.0000000        -7367.7000000      6211.6000000         4186.0000000      2323.3000000
 766       161310.0000000    245270.0000000         1890.8000000      6278.2000000        -1173.0000000      2336.1000000
 767      -114510.0000000    250120.0000000         4808.2000000      6345.6000000        -2495.9000000      2348.9000000
 768       109290.0000000    255060.0000000         -887.4700000      6413.9000000        -2234.9000000      2361.8000000
 769      -472010.0000000    260090.0000000         5799.6000000      6483.0000000        -1321.3000000      2374.8000000
 770       -89990.0000000    265200.0000000         -592.0200000      6553.0000000         2876.5000000      2387.8000000
 771       -76426.0000000    270420.0000000        -9013.6000000      6623.8000000        -4496.7000000      2400.9000000
 772        12005.0000000    275710.0000000       -14107.0000000      6695.6000000         3313.3000000      2414.0000000
 773        73094.0000000    281120.0000000        -3701.8000000      6768.3000000        -2049.6000000      2427.2000000
 774       232410.0000000    286620.0000000         9412.4000000      6842.0000000         1958.8000000      2440.5000000
 775       335160.0000000    292220.0000000        -1789.8000000      6916.6000000         1140.8000000      2453.8000000
 776       136240.0000000    297930.0000000         6374.4000000      6992.1000000           96.9070000      2467.2000000
 777           77.4840000    303730.0000000         5799.3000000      7068.6000000          585.2800000      2480.7000000
 778       147210.0000000    309660.0000000        10971.0000000      7146.1000000         -684.8000000      2494.2000000
 779      -773030.0000000    315700.0000000        -2909.3000000      7224.6000000        -1225.5000000      2507.8000000
 780       -74875.0000000    321850.0000000         2575.9000000      7304.2000000         -417.6400000      2521.5000000
 781       166960.0000000    328120.0000000        -6061.7000000      7384.8000000         1514.1000000      2535.2000000
 782        72003.0000000    334530.0000000       -10376.0000000      7466.4000000        -4751.5000000      2549.0000000
 783      -300940.0000000    341040.0000000         3450.9000000      7549.1000000          330.5200000      2562.9000000
 784      -343600.0000000    347700.0000000         8270.5000000      7632.9000000          552.2600000      2576.8000000
 785       -18143.0000000    354490.0000000        -5977.9000000      7717.8000000         -869.8900000      2590.8000000
 786      -224410.0000000    361430.0000000          940.6900000      7803.8000000         -226.9200000      2604.9000000
 787       -28479.0000000    368520.0000000        14110.0000000      7891.0000000        -2565.0000000      2619.0000000
 788      -249790.0000000    375750.0000000        -2162.2000000      7979.3000000         -148.6000000      2633.3000000
 789       455210.0000000    383140.0000000         1693.6000000      8068.7000000         -763.4600000      2647.5000000
 790        68107.0000000    390700.0000000        -3644.6000000      8159.4000000        -3993.2000000      2661.9000000
 791      -173910.0000000    398420.0000000        -6026.8000000      8251.2000000        -2299.4000000      2676.3000000
 792       344940.0000000    406310.0000000        -4043.2000000      8344.3000000         2866.6000000      2690.8000000
 793      -564050.0000000    414390.0000000         9177.3000000      8438.6000000          -17.3500000      2705.4000000
 794      -339450.0000000    422660.0000000       -24856.0000000      8534.2000000         2902.6000000      2720.0000000
 795       388070.0000000    431120.0000000         1205.1000000      8631.1000000         2898.1000000      2734.7000000
 796      -133930.0000000    439800.0000000        -3250.8000000      8729.2000000         1385.1000000      2749.5000000
 797        36614.0000000    448680.0000000          847.1000000      8828.6000000        -1173.6000000      2764.4000000
 798      -253200.0000000    457770.0000000        -3180.3000000      8929.4000000        -4707.1000000      2779.3000000
 799       696940.0000000    467100.0000000       -10050.0000000      9031.5000000         3093.2000000      2794.3000000
 800       -51442.0000000    476650.0000000         9607.5000000      9135.0000000         3767.2000000      2809.4000000
